File: pydatalab/example_data/XRD/example_mythen.dat
2.084000 2866.69 53.5415
2.096000 2834.86 53.2434
2.108000 2800.17 52.9166
2.120000 2842.75 53.3175
2.132000 2921.21 54.0482
2.144000 2796.67 52.8835
2.156000 2766.35 52.5961
2.168000 2906.15 53.9087
2.180000 2938.69 54.2097
2.192000 2781.33 52.7383
2.204000 2902.8 53.8776
2.216000 3008.78 54.8524
2.228000 2827.58 53.175
2.240000 2953.26 54.3439
2.252000 2941.11 54.232
2.264000 2882.06 53.6848
2.276000 3013.7 54.8972
2.288000 2900.16 53.8531
2.300000 3047.71 55.2061
2.312000 2910.02 53.9446
2.324000 2988.24 54.6648
2.336000 3002.28 54.793
2.348000 2986.9 54.6525
2.360000 3003.19 54.8014
2.372000 2917.35 54.0125
2.384000 3081.53 55.5116
2.396000 3111.97 55.785
2.408000 2981.81 54.6059
2.420000 3077.59 55.476
2.432000 3010.44 54.8675
2.444000 3062.41 55.339
2.456000 3001.89 54.7895
2.468000 2986.5 54.6489
2.480000 2946.38 54.2806
2.492000 3053.47 55.2582
2.504000 2963.29 54.4361
2.516000 3034.55 55.0868
2.528000 3074.06 55.4442
2.540000 3180.2 56.3932
2.552000 2984.16 54.6274
2.564000 3019.56 54.9505
2.576000 3032.32 55.0665
2.588000 3047.22 55.2016
2.600000 3046.24 55.1928
2.612000 2987.86 54.6614
2.624000 3015.17 54.9105
2.636000 3063.87 55.3522
2.648000 3076.61 55.4672
2.660000 3020 54.9546
2.672000 3119.58 55.8532
2.684000 3072.34 55.4287
2.696000 3022.52 54.9775
2.708000 3013.63 54.8966
2.720000 3139.67 56.0328
2.732000 3116.8 55.8283
2.744000 3117.88 55.838
2.756000 3029.88 55.0444
2.768000 3044.13 55.1736
2.780000 3142.63 56.0592
2.792000 3079.5 55.4932
2.804000 3042.59 55.1597
2.816000 3051.76 55.2427
2.828000 3118.18 55.8407
2.840000 3072.62 55.4312
2.852000 3106.72 55.7379
2.864000 3042.76 55.1612
2.876000 3056.5 55.2856
2.888000 3152.71 56.149
2.900000 3090.04 55.5881
2.912000 3193.59 56.5118
2.924000 3127.91 55.9277
2.936000 3032.99 55.0726
2.948000 3184.44 56.4308
2.960000 3060.36 55.3206
2.972000 3026.18 55.0107
2.984000 3135.97 55.9997
2.996000 3135.15 55.9924
3.008000 3166.57 56.2723
3.020000 3112.44 55.7893
3.032000 3115.53 55.8169
3.044000 3086.7 55.5581
3.056000 3152.15 56.144
3.068000 3138.63 56.0235
3.080000 3016.39 54.9217
3.092000 3211.84 56.6731
3.104000 3145 56.0803
3.116000 3053.87 55.2618
3.128000 3203.86 56.6026
3.140000 3206.34 56.6245
3.152000 3089.57 55.5839
3.164000 3155.7 56.1756
3.176000 3082.23 55.5179
3.188000 3229.17 56.8258
3.200000 3133.95 55.9817
3.212000 3105.72 55.729
3.224000 3165.18 56.2599
3.236000 3153.23 56.1536
3.248000 3104.74 55.7202
3.260000 3150.89 56.1328
3.272000 3227.69 56.8128
3.284000 3120.47 55.8611
3.296000 3173.26 56.3317
3.308000 3214.74 56.6987
3.320000 3045.72 55.188
3.332000 3189.41 56.4749
3.344000 3177.28 56.3674
3.356000 3124.2 55.8946
3.368000 3108.07 55.7501
3.380000 3153.93 56.1598
3.392000 3139.78 56.0338
3.404000 3120.43 55.8608
3.416000 3141.02 56.0448
3.428000 3063.52 55.349
3.440000 3143.82 56.0697
3.452000 3133.69 55.9794
3.464000 3110.96 55.776
3.476000 3180.43 56.3953
3.488000 3182.07 56.4099
3.500000 3183.14 56.4194
3.512000 3112.13 55.7864
3.524000 3146.61 56.0947
3.536000 3283.46 57.3015
3.548000 3140.84 56.0432
3.560000 3083.29 55.5274
3.572000 3157.37 56.1905
3.584000 3220.18 56.7466
3.596000 3102.49 55.7
3.608000 3175.74 56.3537
3.620000 3164.83 56.2568
3.632000 3117.94 55.8385
3.644000 3137.94 56.0173
3.656000 3157.18 56.1888
3.668000 3171.52 56.3163
3.680000 3198.36 56.554
3.692000 3222.61 56.7681
3.704000 3089.8 55.5859
3.716000 3210.78 56.6638
3.728000 3147.16 56.0996
3.740000 3219.83 56.7436
3.752000 3137.83 56.0164
3.764000 3209.16 56.6495
3.776000 3128.67 55.9345
3.788000 3176.45 56.36
3.800000 3141.84 56.0521
3.812000 3085.66 55.5488
3.824000 3118.33 55.842
3.836000 3219.49 56.7405
3.848000 3241.62 56.9352
3.860000 3176.49 56.3603
3.872000 3287.99 57.341
3.884000 3157.26 56.1895
3.896000 3161.41 56.2264
3.908000 3128.04 55.9289
3.920000 3161.02 56.223
3.932000 3247.36 56.9856
3.944000 3127.34 55.9226
3.956000 3238.87 56.9111
3.968000 3133.46 55.9773
3.980000 3245.55 56.9697
3.992000 3183.62 56.4235
4.004000 3190.77 56.4869
4.016000 3264.97 57.1399
4.028000 3159.96 56.2136
4.040000 3226.66 56.8037
4.052000 3185.61 56.4412
4.064000 3177.31 56.3676
4.076000 3252.47 57.0304
4.088000 3199.26 56.562
4.100000 3183.99 56.4269
4.112000 3176.46 56.3601
4.124000 3217.62 56.7241
4.136000 3146.46 56.0933
4.148000 3240.18 56.9226
4.160000 3168.58 56.2901
4.172000 3289.19 57.3514
4.184000 3192.63 56.5033
4.196000 3225.13 56.7902
4.208000 3207.55 56.6352
4.220000 3188.18 56.4639
4.232000 3191.25 56.4911
4.244000 3141.44 56.0486
4.256000 3212.64 56.6802
4.268000 3188.28 56.4649
4.280000 3237.38 56.8979
4.292000 3274.2 57.2206
4.304000 3234.37 56.8715
4.316000 3277.74 57.2515
4.328000 3301.66 57.46
4.340000 3276.55 57.2412
4.352000 3175.62 56.3526
4.364000 3126 55.9107
4.376000 3296.04 57.4112
4.388000 3239.35 56.9153
4.400000 3240.75 56.9276
4.412000 3139.52 56.0314
4.424000 3159.96 56.2136
4.436000 3285.97 57.3234
4.448000 3263.86 57.1302
4.460000 3170.92 56.3109
4.472000 3222.47 56.7668
4.484000 3264.71 57.1377
4.496000 3218.02 56.7276
4.508000 3125.47 55.9059
4.520000 3273.83 57.2174
4.532000 3211.09 56.6665
4.544000 3235.41 56.8806
4.556000 3208.02 56.6394
4.568000 3288.09 57.3419
4.580000 3225.46 56.7931
4.592000 3101.41 55.6903
4.604000 3223.11 56.7724
4.616000 3249.23 57.002
4.628000 3162.01 56.2317
4.640000 3211.95 56.6741
4.652000 3224.79 56.7872
4.664000 3205.7 56.6189
4.676000 3187.96 56.462
4.688000 3138.42 56.0216
4.700000 3143.97 56.0711
4.712000 3321.32 57.6309
4.724000 3186.66 56.4505
4.736000 3140.72 56.0421
4.748000 3223.64 56.7771
4.760000 3210.27 56.6592
4.772000 3229.2 56.826
4.784000 3254.74 57.0504
4.796000 3215.69 56.7071
4.808000 3067.38 55.3839
4.820000 3264.53 57.1361
4.832000 3177.51 56.3694
4.844000 3181.28 56.4028
4.856000 3191.25 56.4912
4.868000 3203.92 56.6032
4.880000 3217.12 56.7197
4.892000 3171.53 56.3164
4.904000 3128.02 55.9287
4.916000 3185.46 56.4399
4.928000 3169.49 56.2982
4.940000 3124.7 55.899
4.952000 3222.6 56.7679
4.964000 3285.69 57.3209
4.976000 3252.86 57.0339
4.988000 3195.2 56.5261
5.000000 3259.56 57.0926