File: pydatalab/example_data/XRD/example_ocx.xy
theta,intensity
5.0000,2.732
5.2800,2.248
5.5600,2.182
5.8400,1.988
6.1200,1.816
6.4000,1.679
6.6800,1.582
6.9600,1.446
7.2400,1.457
7.5200,1.481
7.8000,1.433
8.0800,1.422
8.3600,1.443
8.6400,1.482
8.9200,1.408
9.2000,1.460
9.4800,1.393
9.7600,1.373
10.0400,1.422
10.3200,1.398
10.6000,1.349
10.8800,1.371
11.1600,1.326
11.4400,1.355
11.7200,1.338
12.0000,1.339
12.2800,1.269
12.5600,1.304
12.8400,1.275
13.1200,1.312
13.4000,1.245
13.6800,1.249
13.9600,1.258
14.2400,1.196
14.5200,1.223
14.8000,1.202
15.0800,1.194
15.3600,1.184
15.6400,1.225
15.9200,1.216
16.2000,1.198
16.4800,1.181
16.7600,1.190
17.0400,1.192
17.3200,1.231
17.6000,1.180
17.8800,1.202
18.1600,1.156
18.4400,1.199
18.7200,1.179
19.0000,1.151
19.2800,1.175
19.5600,1.138
19.8400,1.133
20.1200,1.172
20.4000,1.160
20.6800,1.134
20.9600,1.119
21.2400,1.124
21.5200,1.120
21.8000,1.113
22.0800,1.101
22.3600,1.069
22.6400,1.042
22.9200,0.971
23.2000,1.003
23.4800,1.002
23.7600,0.895
24.0400,0.934
24.3200,0.934
24.6000,0.964
24.8800,0.883
25.1600,0.873
25.4400,0.860
25.7200,0.837
26.0000,0.798
26.2800,0.802
26.5600,0.830
26.8400,0.808
27.1200,0.792
27.4000,0.761
27.6800,0.736
27.9600,0.726
28.2400,0.741
28.5200,0.732
28.8000,0.721
29.0800,0.714
29.3600,0.672
29.6400,0.654
29.9200,0.698
30.2000,0.658
30.4800,0.666
30.7600,0.606
31.0400,0.622
31.3200,0.597
31.6000,0.616
31.8800,0.612
32.1600,0.597
32.4400,0.587
32.7200,0.588
33.0000,0.566
33.2800,0.563
33.5600,0.544
33.8400,0.589
34.1200,0.561
34.4000,0.553
34.6800,0.529
34.9600,0.534
35.2400,0.491
35.5200,0.495
35.8000,0.510
36.0800,0.526
36.3600,0.501
36.6400,0.494
36.9200,0.518
37.2000,0.521
37.4800,0.512
37.7600,0.539
38.0400,0.580
38.3200,0.636
38.6000,0.698
38.8800,0.873
39.1600,1.431
39.4400,2.679
39.7200,3.683
40.0000,2.982
40.2800,1.454
40.5600,0.790
40.8400,0.604
41.1200,0.534
41.4000,0.498
41.6800,0.458
41.9600,0.453
42.2400,0.472
42.5200,0.426
42.8000,0.407
43.0800,0.410
43.3600,0.405
43.6400,0.385
43.9200,0.449
44.2000,0.446
44.4800,0.468
44.7600,0.491
45.0400,0.520
45.3200,0.604
45.6000,0.840
45.8800,1.130
46.1600,1.405
46.4400,1.273
46.7200,0.883
47.0000,0.579
47.2800,0.464
47.5600,0.405
47.8400,0.346
48.1200,0.314
48.4000,0.304
48.6800,0.296
48.9600,0.293
49.2400,0.267
49.5200,0.263
49.8000,0.267
50.0800,0.277
50.3600,0.252
50.6400,0.278
50.9200,0.253
51.2000,0.250
51.4800,0.247
51.7600,0.246
52.0400,0.238
52.3200,0.258
52.6000,0.237
52.8800,0.232
53.1600,0.236
53.4400,0.249
53.7200,0.238
54.0000,0.241
54.2800,0.249
54.5600,0.213
54.8400,0.221
55.1200,0.220
55.4000,0.205
55.6800,0.221
55.9600,0.215
56.2400,0.200
56.5200,0.210
56.8000,0.218
57.0800,0.202
57.3600,0.216
57.6400,0.194
57.9200,0.229
58.2000,0.202
58.4800,0.185
58.7600,0.220
59.0400,0.228
59.3200,0.218
59.6000,0.238
59.8800,0.212
60.1600,0.194
60.4400,0.208
60.7200,0.219
61.0000,0.198
61.2800,0.215
61.5600,0.202
61.8400,0.217
62.1200,0.210
62.4000,0.196
62.6800,0.211
62.9600,0.214
63.2400,0.227
63.5200,0.243
63.8000,0.236
64.0800,0.231
64.3600,0.242
64.6400,0.263
64.9200,0.268
65.2000,0.285
65.4800,0.283
65.7600,0.336
66.0400,0.365
66.3200,0.396
66.6000,0.527
66.8800,0.619
67.1600,0.763
67.4400,0.878
67.7200,0.857
68.0000,0.832
68.2800,0.822
68.5600,0.934
68.8400,2.115
69.1200,96.686
69.4000,25.989
69.6800,1.332
69.9600,0.797
70.2400,0.660
70.5200,0.542
70.8000,0.487
71.0800,0.458
71.3600,0.366
71.6400,0.341
71.9200,0.302
72.2000,0.300
72.4800,0.286
72.7600,0.261
73.0400,0.261
73.3200,0.238
73.6000,0.249
73.8800,0.214
74.1600,0.219
74.4400,0.199
74.7200,0.212
75.0000,0.189
75.2800,0.201
75.5600,0.200
75.8400,0.189
76.1200,0.179
76.4000,0.181
76.6800,0.166
76.9600,0.161
77.2400,0.181
77.5200,0.193
77.8000,0.167
78.0800,0.171
78.3600,0.190
78.6400,0.171
78.9200,0.190
79.2000,0.202
79.4800,0.242
79.7600,0.232
80.0000,0.272