File: pydatalab/example_data/XRD/example_evadiffract.xy
'Id: "" Comment: "Example file from Bruker diffrac.eva export" Operator: "Emmy Noether" Anode: "Cu" Scantype: "Coupled TwoTheta/Theta" TimePerStep: "96"
5.0001 4.852
5.0103 4.097
5.0204 4.667
5.0306 4.410
5.0407 4.484
5.0509 5.542
5.0610 5.244
5.0712 4.579
5.0813 4.856
5.0915 5.335
5.1017 4.999
5.1118 4.624
5.1220 4.898
5.1321 4.363
5.1423 3.871
5.1524 4.346
5.1626 5.583
5.1728 5.091
5.1829 5.001
5.1931 5.310
5.2032 4.702
5.2134 4.534
5.2235 4.486
5.2337 4.715
5.2438 5.022
5.2540 5.130
5.2642 4.412
5.2743 4.324