File: pydatalab/example_data/XRD/example_mac.xye
0.000	    11.632	     2.650
0.002	    10.541	     2.475
0.004	    11.460	     2.594
0.006	     9.518	     2.282
0.008	    16.624	     3.107
0.010	     7.073	     1.670
0.012	    18.694	     3.415
0.014	    14.172	     2.640
0.016	    14.052	     2.823
0.018	    12.412	     2.418
0.020	    14.752	     2.803
0.022	    20.484	     3.375
0.024	     7.754	     1.933
0.026	    12.620	     2.620
0.028	    21.306	     3.513
0.030	    19.898	     3.264
0.032	    15.690	     2.877
0.034	     7.103	     1.571
0.036	    13.965	     2.597
0.038	    13.141	     2.543
0.040	    13.748	     2.658
0.042	    16.090	     3.032
0.044	     8.818	     2.038
0.046	    16.564	     2.947
0.048	     9.983	     2.178
0.050	    14.947	     2.827
0.052	    12.052	     2.584
0.054	    10.503	     2.385
0.056	    15.117	     2.973
0.058	    12.151	     2.389
0.060	    20.936	     3.230
0.062	     8.937	     2.069
0.064	     9.874	     2.247
0.066	    15.622	     2.459
0.068	     7.567	     1.928
0.070	    10.921	     2.425
0.072	    14.826	     2.986
0.074	    12.483	     2.436
0.076	    17.983	     3.170
0.078	     5.776	     1.628
0.080	    10.980	     2.439
0.082	     6.875	     1.691
0.084	    19.741	     3.209
0.086	    13.953	     2.767
0.088	    11.413	     2.236
0.090	    13.468	     2.747
0.092	    15.377	     2.752
0.094	    11.319	     2.617
0.096	    21.263	     3.179
0.098	    13.475	     2.599
0.100	    10.587	     2.241
0.102	    14.968	     2.871
0.104	     9.479	     1.955
0.106	    16.768	     3.108
0.108	    10.576	     2.201
0.110	    12.638	     2.624
0.112	    15.029	     2.503
0.114	    10.636	     2.473
0.116	    14.348	     2.785
0.118	    19.029	     3.145
0.120	    26.560	     3.977
0.122	    33.264	     3.944
0.124	    56.832	     6.112
0.126	    56.295	     5.164
0.128	    64.727	     6.013
0.130	   101.135	     7.454
0.132	   161.305	     9.243
0.134	   138.452	     8.804
0.136	    78.726	     6.169
0.138	   206.548	    10.891
0.140	   294.337	    12.098
0.142	   265.535	    12.579
0.144	   244.680	    10.965
0.146	   196.625	    10.077
0.148	   459.129	    14.617
0.150	   480.363	    17.179
0.152	   327.717	    12.402
0.154	   332.259	    13.889
0.156	   345.098	    12.659
0.158	   306.693	    13.855
0.160	   318.340	    12.977
0.162	   193.982	    10.549
0.164	   122.477	     7.811
0.166	    98.620	     7.432
0.168	    51.911	     5.346
0.170	    57.398	     5.352
0.172	    32.954	     4.607
0.174	    36.590	     4.326
0.176	    22.595	     3.454
0.178	    22.577	     3.477
0.180	    45.770	     5.365
0.182	    20.998	     3.102
0.184	    18.330	     3.135
0.186	    19.992	     3.205
0.188	    21.323	     3.608
0.190	    18.487	     2.804
0.192	    16.280	     2.898
0.194	    12.889	     2.390
0.196	    10.411	     2.240
0.198	    14.364	     2.702
0.200	    16.186	     3.055
0.202	    15.201	     2.798
0.204	    16.403	     3.005
0.206	    18.418	     3.074
0.208	    10.395	     2.376
0.210	    14.130	     2.619
0.212	    19.701	     3.343
0.214	    12.282	     2.616
0.216	    11.401	     2.374
0.218	    22.919	     3.705
0.220	    13.323	     2.708
0.222	    27.248	     4.107
0.224	    28.867	     3.989
0.226	     8.770	     2.085
0.228	    21.874	     3.198
0.230	    21.728	     3.603
0.232	    21.215	     3.503
0.234	    22.088	     3.657
0.236	    10.537	     2.152
0.238	    19.844	     3.185
0.240	    25.077	     3.778
0.242	    28.337	     3.960
0.244	    14.090	     2.600
0.246	    12.932	     2.495
0.248	    13.484	     2.579
0.250	    16.201	     2.978
0.252	    25.451	     3.797
0.254	    18.012	     3.016
0.256	    35.269	     4.725
0.258	    11.356	     2.443
0.260	    13.190	     2.610
0.262	    29.403	     4.106
0.264	    12.467	     2.540
0.266	    15.336	     2.583
0.268	    35.002	     4.234
0.270	    14.975	     2.451
0.272	    12.893	     2.549
0.274	    18.663	     3.329
0.276	    14.123	     2.770
0.278	    13.157	     2.663
0.280	    15.017	     2.845
0.282	    22.313	     3.803
0.284	    23.084	     3.337
0.286	    32.106	     4.503
0.288	    18.286	     2.983
0.290	    20.686	     3.344
0.292	    11.759	     2.418
0.294	    21.155	     3.248
0.296	    21.003	     3.407
0.298	    17.443	     3.169
0.300	    13.880	     2.464
0.302	    18.505	     3.244
0.304	    22.554	     3.527
0.306	    24.692	     3.844
0.308	    14.041	     2.814
0.310	    13.795	     2.690
0.312	    20.663	     3.250
0.314	    25.765	     3.852
0.316	     9.988	     2.390
0.318	     5.570	     1.475
0.320	    12.266	     2.550
0.322	    16.783	     2.870
0.324	    16.258	     3.219
0.326	    21.253	     3.336
0.328	    21.650	     3.359
0.330	    17.289	     2.834
0.332	    17.593	     3.190
0.334	    18.312	     3.405
0.336	    15.001	     2.839
0.338	    14.113	     2.813
0.340	    29.993	     3.877
0.342	    17.781	     2.905
0.344	    15.114	     2.799
0.346	    11.494	     2.452
0.348	    25.198	     3.336
0.350	    19.762	     3.361
0.352	    15.533	     2.781
0.354	    19.138	     3.125
0.356	    24.398	     3.627
0.358	    15.138	     2.719
0.360	    16.968	     2.927
0.362	    20.810	     3.533
0.364	    26.549	     3.845
0.366	    20.579	     3.328
0.368	    18.260	     3.112
0.370	    11.665	     2.269
0.372	    26.616	     3.698
0.374	    12.559	     2.572
0.376	    22.235	     3.684
0.378	    16.976	     2.886
0.380	    15.801	     2.747
0.382	    21.942	     3.443
0.384	    37.892	     4.683
0.386	    16.688	     2.958
0.388	    10.689	     2.663
0.390	    17.614	     2.843
0.392	    16.741	     2.911
0.394	    18.653	     2.839
0.396	    12.506	     2.704
0.398	    20.526	     3.411
0.400	    16.472	     2.989
0.402	    20.146	     3.197
0.404	    14.758	     2.789
0.406	    10.340	     2.376
0.408	    17.349	     3.036
0.410	    14.653	     2.751
0.412	    22.142	     3.415
0.414	     7.779	     2.018
0.416	    15.494	     2.679
0.418	    12.999	     2.689
0.420	    20.373	     3.182
0.422	    10.889	     2.354
0.424	    22.514	     3.414
0.426	    26.267	     3.625
0.428	    28.796	     3.910
0.430	    23.281	     3.400
0.432	    26.146	     3.816
0.434	    49.964	     5.259
0.436	    29.289	     3.621
0.438	    44.771	     4.723
0.440	    39.424	     4.679
0.442	    45.111	     4.942
0.444	    33.755	     4.243
0.446	    45.581	     4.779
0.448	    30.056	     4.248
0.450	    45.963	     4.755
0.452	    61.633	     5.448
0.454	    54.890	     5.422
0.456	    66.958	     6.294
0.458	    91.339	     7.331
0.460	    70.838	     5.981
0.462	    48.487	     4.927
0.464	    42.065	     4.651
0.466	    60.625	     5.629
0.468	    61.780	     5.503
0.470	    75.658	     6.667
0.472	    84.183	     6.478
0.474	    63.998	     5.908
0.476	    78.096	     6.359
0.478	    68.570	     6.213
0.480	    81.883	     6.665
0.482	    84.946	     6.678
0.484	    75.666	     6.597
0.486	   113.291	     7.611
0.488	    93.915	     6.926
0.490	    84.084	     6.636
0.492	   125.374	     8.496
0.494	   106.644	     7.635
0.496	   124.457	     8.413
0.498	   118.414	     7.654
0.500	   120.299	     8.576
0.502	   103.957	     7.159
0.504	   152.394	     9.551
0.506	   123.162	     7.460
0.508	   187.867	    10.391
0.510	    98.665	     6.874
0.512	    97.656	     7.090
0.514	   101.887	     7.065
0.516	   163.459	     9.189
0.518	   149.450	     8.655
0.520	   134.653	     8.463
0.522	   137.859	     8.632
0.524	    95.008	     7.051
0.526	   130.272	     8.383
0.528	   174.750	     9.346
0.530	   134.531	     8.728
0.532	   132.262	     8.208
0.534	   109.021	     7.323
0.536	   120.118	     7.528
0.538	   126.943	     8.356
0.540	   119.463	     7.927
0.542	   185.759	    10.350
0.544	   195.107	    10.595
0.546	   170.481	     9.750
0.548	   139.935	     8.950
0.550	   121.738	     7.853
0.552	    66.230	     4.897
0.554	   120.992	     8.058
0.556	   130.098	     8.670
0.558	   122.665	     8.064
0.560	   124.165	     8.525
0.562	    95.937	     6.999
0.564	    94.517	     7.315
0.566	    91.486	     6.687
0.568	    73.968	     6.395
0.570	    94.462	     7.081
0.572	   104.666	     7.335
0.574	   109.197	     7.494
0.576	   131.591	     8.356
0.578	    85.436	     6.812
0.580	    70.167	     5.772
0.582	   103.046	     7.636
0.584	    84.906	     6.473
0.586	   104.785	     7.972
0.588	   104.278	     7.349
0.590	    78.855	     6.764
0.592	    88.332	     6.570
0.594	    63.880	     5.810
0.596	   118.143	     7.861
0.598	   113.272	     7.759