File: pydatalab/example_data/XRD/example_bmb.xye
/* /data/apr17/11bmb_3294.mda APR 12, 2017 01:23:16.4721
# Run no. =               3294
# No. steps =             34053
# Scan time =             APR 12, 2017 01:23:16.4721
# Scan Comment =          UserControl Robotic Collection
# Sample Comment =        ANL0AC4032
# User sample name =      eel69B
# Composition =           MnB
# Proposal number =       51762
# Email(s) =              jdbocarsly@mrl.ucsb.edu, stephendwilson
# Temp (K) =              300.03
# Barcode ID =            UserControl Data
# Start 2theta (deg) =    -6.0
# End 2theta (deg) =      28.0
# Nominal 2theta step (deg) =     0.001
# Time per step (sec) =   0.1
# Actual 2theta step (deg) =     0.0009984375
# 100/Ring Current[0] =   0.983
# Monitor I0 [0] =        8336019.6
# Monitor I1 [0] =        7092664.5
# Gonio._radius [mm] =    1000.0
# Calibration file =      /home/beams/USER11BM/Users/GUP51762/11bmb_3283.calib
# Calibrated wavelength = 0.414581
# Normalization factor  = 8.1774
# */
 0.5 662.407 37.7442
 0.501997 621.629 36.5042
 0.503994 594.195 35.5557
 0.505991 657.432 37.5492
 0.507988 606.714 36.1207
 0.509984 656.346 37.3676
 0.511981 597.998 35.8889
 0.513978 579.779 35.246
 0.515975 516.445 33.1486
 0.517972 567.018 34.5775
 0.519969 542.388 33.9721
 0.521966 547.44 34.1831
 0.523962 556.614 34.1231
 0.525959 574.968 34.8947
 0.527956 550.086 33.9059
 0.529953 546.959 33.8679
 0.53195 535.704 33.3836
 0.533947 550.529 33.9564
 0.535944 539.468 33.7446
 0.537941 525.571 33.2762
 0.539937 512.324 32.9916
 0.541934 543.155 34.0335
 0.543931 513.3 33.0907
 0.545928 545.856 34.1292
 0.547925 474.345 32.0653
 0.549922 494.309 32.4841
 0.551919 487.532 32.2613
 0.553916 479.655 32.0479
 0.555913 440.41 30.7147
 0.557909 471.493 31.7904
 0.559906 489.881 32.4296
 0.561903 481.896 32.2104
 0.5639 494.723 32.4742
 0.565897 422.768 29.9723
 0.567894 470.372 31.6111
 0.569891 430.055 30.3821
 0.571887 544.035 33.7771
 0.573884 432.124 30.2031
 0.575881 443.571 30.6277
 0.577878 416.127 29.4196
 0.579875 446.494 30.5114
 0.581872 437.376 30.4088
 0.583869 454.766 30.7654
 0.585866 413.207 29.3175
 0.587862 424.514 30.0311
 0.589859 427.608 30.1472
 0.591856 416.082 29.7125
 0.593853 427.602 30.2656
 0.59585 413.618 29.7639
 0.597847 400.308 29.5564
 0.599844 385.11 28.6087
 0.601841 433.331 30.5808
 0.603838 415.481 29.8609
 0.605834 468.184 31.5372
 0.607831 369.1 27.9716
 0.609828 395.937 29.1804
 0.611825 409.201 29.5968
 0.613822 345.833 27.1463
 0.615819 364.033 27.9593
 0.617816 407.747 29.3237
 0.619812 383.621 28.5844
 0.621809 377.171 28.258
 0.623806 335.144 26.592
 0.625803 366.146 27.883
 0.6278 343.546 26.8133
 0.629797 325.785 26.2066
 0.631794 346.92 27.0509
 0.633791 370.293 27.6586
 0.635787 324.909 26.1504
 0.637784 299.112 25.2898
 0.639781 394.468 28.8697
 0.641778 353.879 27.4495
 0.643775 378.059 28.3925
 0.645772 334.155 26.7387
 0.647769 371.916 28.3421
 0.649766 337.053 26.8951
 0.651763 338.105 26.9483
 0.653759 309.838 25.7736
 0.655756 352.01 27.5091
 0.657753 324.364 26.2204
 0.65975 298.392 25.3689
 0.661747 327.401 26.364
 0.663744 337.248 26.8176
 0.665741 278.118 24.2941
 0.667737 316.832 25.9164
 0.669734 331.303 26.5821
 0.671731 307.063 25.5384
 0.673728 310.207 25.7211
 0.675725 313.82 25.5944
 0.677722 369.519 27.813
 0.679719 279.82 24.2379
 0.681716 326.529 26.222
 0.683712 299.886 25.0557
 0.685709 279.09 24.3253
 0.687706 229.197 21.925
 0.689703 285.817 24.6082
 0.6917 313.08 25.8503
 0.693697 269.949 24.1604
 0.695694 348.74 27.3146
 0.697691 299.661 25.3436
 0.699688 275.561 24.4204
 0.701684 274.45 24.1798
 0.703681 280.91 24.6114
 0.705678 300.814 25.4226
 0.707675 283.629 24.6338
 0.709672 288.717 24.8549
 0.711669 303.302 25.519
 0.713666 247.34 23.0731
 0.715662 285.064 24.6807
 0.717659 327.368 26.4125
 0.719656 297.702 25.1104
 0.721653 287.603 24.8771
 0.72365 259.43 23.4033
 0.725647 275.6 24.0245
 0.727644 265.928 23.7394
 0.729641 278.066 24.0311
 0.731638 254.932 23.1294
 0.733634 269.709 23.807
 0.735631 306.054 25.2844
 0.737628 274.945 23.9732
 0.739625 300.098 25.4303
 0.741622 293.164 24.9755
 0.743619 294.902 25.2479
 0.745616 264.951 23.6498
 0.747613 236.659 22.6072
 0.749609 259.518 23.6671
 0.751606 240.983 22.7446
 0.753603 282.723 24.6371
 0.7556 252.939 23.3902
 0.757597 269.455 23.8713
 0.759594 280.853 24.5121
 0.761591 254.677 23.4715
 0.763587 277.61 24.2782
 0.765584 250.846 23.1522
 0.767581 224.183 21.8754
 0.769578 247.805 23.0542
 0.771575 250.185 23.0507
 0.773572 252.642 23.109
 0.775569 308.644 25.6416
 0.777566 261.031 23.4346
 0.779563 244.668 22.6805
 0.781559 264.764 23.5985
 0.783556 236.687 22.2609
 0.785553 272.687 23.9362
 0.78755 271.894 24.0438
 0.789547 262.415 23.5991
 0.791544 232.713 22.3621
 0.793541 259.395 23.4337
 0.795538 266.435 23.9434
 0.797534 242.555 22.7202
 0.799531 264.168 23.7439
 0.801528 264.415 23.831
 0.803525 263.647 23.8738
 0.805522 238.092 22.5209
 0.807519 242.548 22.6386
 0.809516 240.552 22.7425
 0.811512 216.639 21.4938
 0.813509 238.214 22.5744
 0.815506 236.953 22.4932
 0.817503 227.994 22.0981
 0.8195 258.994 23.3767
 0.821497 276.828 24.3121
 0.823494 222.117 21.7133
 0.825491 219.874 21.4738
 0.827488 237.91 22.3827
 0.829484 224.865 21.7878
 0.831481 250.488 22.8687
 0.833478 269.508 23.8274
 0.835475 197.501 20.3274
 0.837472 244.573 22.7911
 0.839469 244.452 22.871
 0.841466 223.476 21.7426
 0.843463 237.469 22.6348
 0.845459 202.195 20.9181
 0.847456 238.873 22.5781
 0.849453 212.148 21.4282
 0.85145 236.818 22.6354
 0.853447 206.171 21.0018
 0.855444 218.805 21.6229
 0.857441 247.6 23.0505
 0.859437 218.277 21.6744
 0.861434 233.459 22.2465
 0.863431 262.523 23.7273
 0.865428 190.238 20.1137
 0.867425 233.473 22.2448
 0.869422 228.736 22.0478
 0.871419 243.531 22.6912
 0.873416 218.767 21.58
 0.875413 251.295 22.8995
 0.877409 214.201 21.2511
 0.879406 205.196 20.7184
 0.881403 237.912 22.2792
 0.8834 217.782 21.3507
 0.885397 249.297 22.8051
 0.887394 205.007 20.889
 0.889391 208.99 21.0831
 0.891387 213.339 21.3491
 0.893384 217.772 21.549
 0.895381 226.833 22.0139
 0.897378 234.275 22.4017
 0.899375 201.448 20.8129
 0.901372 242.631 23.0068
 0.903369 195.386 20.3811
 0.905366 198.903 20.7132
 0.907362 237.194 22.548
 0.909359 217.258 21.5631
 0.911356 170.169 19.0423
 0.913353 224.299 21.9189
 0.91535 201.02 20.6664
 0.917347 213.326 21.1653
 0.919344 224.416 21.8089
 0.921341 238.473 22.5067
 0.923338 235.882 22.3949
 0.925334 234.161 22.262
 0.927331 197.481 20.3648
 0.929328 215.207 21.4097
 0.931325 231.659 21.9542
 0.933322 195.759 20.2779
 0.935319 202.02 20.6202
 0.937316 205.314 20.7543
 0.939312 213.954 21.3303
 0.941309 208.551 21.0731
 0.943306 216.131 21.434
 0.945303 226.545 22.0823
 0.9473 176.078 19.476
 0.949297 204.426 21.0708
 0.951294 205.85 20.9013
 0.953291 174.345 19.3862
 0.955287 235.536 22.4321
 0.957284 220.206 21.7901
 0.959281 215.038 21.3901
 0.961278 200.925 20.818
 0.963275 200.599 20.8067
 0.965272 196.735 20.3109
 0.967269 210.589 21.2489
 0.969266 226.636 21.8598
 0.971263 197.605 20.4785
 0.973259 191.566 20.1671
 0.975256 205.284 20.7925
 0.977253 204.743 20.8235
 0.97925 184.071 19.6239
 0.981247 194.014 20.2418
 0.983244 231.148 22.0871
 0.985241 198.439 20.2086
 0.987237 205.457 20.8144
 0.989234 190.8 20.2546
 0.991231 208.115 21.0156
 0.993228 174.942 19.4168
 0.995225 175.248 19.3624
 0.997222 207.895 21.1993
 0.999219 208.195 20.8906
 1.00122 182.269 19.8882
 1.00321 197.617 20.5819
 1.00521 213.633 21.3669
 1.00721 212.038 21.2996
 1.0092 174.207 19.2719
 1.0112 229.368 22.1721
 1.0132 181.533 19.5578
 1.01519 222.424 21.965
 1.01719 201.133 20.7323
 1.01919 202.777 20.7161
 1.02118 187.439 20.0282
 1.02318 163.347 18.5703
 1.02518 201.351 20.7053
 1.02717 179.158 19.4482
 1.02917 157.444 18.3261
 1.03117 156.343 18.1421
 1.03317 197.004 20.2884
 1.03516 167.044 18.7159
 1.03716 197.6 20.415
 1.03916 195.679 20.2982
 1.04115 188.301 20.0752
 1.04315 170.676 19.0591
 1.04515 179.694 19.7016
 1.04714 174.581 19.2626
 1.04914 195.825 20.5645
 1.05114 183.625 19.8759
 1.05313 218.22 21.5116
 1.05513 202.133 20.763
 1.05713 166.999 18.7967
 1.05913 169.28 19.0735
 1.06112 161.196 18.4017
 1.06312 186.607 20.1314
 1.06512 161.147 18.4525
 1.06711 212.662 21.3771
 1.06911 193.592 20.268
 1.07111 174.344 19.1813
 1.0731 196.446 20.5262