File: pydatalab/example_data/XRD/example_mythen.xye
2.038000 76131 275.918
2.042000 66343 257.571
2.046000 60502 245.972
2.050000 58150 241.143
2.054000 56412 237.512
2.058000 55123 234.783
2.062000 53971 232.317
2.066000 53188 230.625
2.070000 54024 232.431
2.074000 53292 230.851
2.078000 53469 231.234
2.082000 52889 229.976
2.086000 53168 230.582
2.090000 53371 231.022
2.094000 52916 230.035
2.098000 53496 231.292
2.102000 53343 230.961
2.106000 53620 231.56
2.110000 53646 231.616
2.114000 53524 231.353
2.118000 53705 231.743
2.122000 53505 231.311
2.126000 53688 231.707
2.130000 53922 232.211
2.134000 54236 232.886
2.138000 54310 233.045
2.142000 53962 232.297
2.146000 54222 232.856
2.150000 55096 234.725
2.154000 54517 233.489
2.158000 54560 233.581
2.162000 55165 234.872
2.166000 54692 233.863
2.170000 55456 235.491
2.174000 55524 235.635
2.178000 55197 234.94
2.182000 55153 234.847
2.186000 55525 235.637
2.190000 55760 236.136
2.194000 55877 236.383
2.198000 56447 237.586
2.202000 55403 235.378
2.206000 56343 237.367
2.210000 56813 238.355
2.214000 57553 239.902
2.218000 57033 238.816
2.222000 57970 240.77
2.226000 57339 239.456
2.230000 58282 241.417
2.234000 58364 241.586
2.238000 59331 243.58
2.242000 60224 245.406
2.246000 59706 244.348
2.250000 60354 245.671
2.254000 61154 247.293
2.258000 61661 248.316
2.262000 62631 250.262
2.266000 63572 252.135
2.270000 64879 254.714
2.274000 65929 256.766
2.278000 67451 259.713
2.282000 68661 262.032
2.286000 69910 264.405
2.290000 71842 268.034
2.294000 73201 270.557
2.298000 76228 276.094
2.302000 77395 278.2
2.306000 80773 284.206
2.310000 83256 288.541
2.314000 86421 293.974
2.318000 89546 299.242
2.322000 94388 307.226
2.326000 97704 312.576
2.330000 105132 324.241